# This file was derived from Lake Ontario measurements from Javier A. Concha for
# Sept. 19, 2013. 
#
# 
#
#
#
#
#
#wavelength [nm]     coef [m^2/mg]
4.0000000e+02 2.1466103e-02
4.0100000e+02 2.1464177e-02
4.0200000e+02 2.1542185e-02
4.0300000e+02 2.1647198e-02
4.0400000e+02 2.1826612e-02
4.0500000e+02 2.2076345e-02
4.0600000e+02 2.2365031e-02
4.0700000e+02 2.2683900e-02
4.0800000e+02 2.3015531e-02
4.0900000e+02 2.3334797e-02
4.1000000e+02 2.3637633e-02
4.1100000e+02 2.3937415e-02
4.1200000e+02 2.4237607e-02
4.1300000e+02 2.4534178e-02
4.1400000e+02 2.4824635e-02
4.1500000e+02 2.5085938e-02
4.1600000e+02 2.5320757e-02
4.1700000e+02 2.5530785e-02
4.1800000e+02 2.5701795e-02
4.1900000e+02 2.5838759e-02
4.2000000e+02 2.5965756e-02
4.2100000e+02 2.6082759e-02
4.2200000e+02 2.6196495e-02
4.2300000e+02 2.6324567e-02
4.2400000e+02 2.6475609e-02
4.2500000e+02 2.6646347e-02
4.2600000e+02 2.6822924e-02
4.2700000e+02 2.6979029e-02
4.2800000e+02 2.7104395e-02
4.2900000e+02 2.7207219e-02
4.3000000e+02 2.7313509e-02
4.3100000e+02 2.7464764e-02
4.3200000e+02 2.7679173e-02
4.3300000e+02 2.7938199e-02
4.3400000e+02 2.8212063e-02
4.3500000e+02 2.8460063e-02
4.3600000e+02 2.8631877e-02
4.3700000e+02 2.8736554e-02
4.3800000e+02 2.8804147e-02
4.3900000e+02 2.8826566e-02
4.4000000e+02 2.8788716e-02
4.4100000e+02 2.8686401e-02
4.4200000e+02 2.8478494e-02
4.4300000e+02 2.8134292e-02
4.4400000e+02 2.7669619e-02
4.4500000e+02 2.7111440e-02
4.4600000e+02 2.6486525e-02
4.4700000e+02 2.5816559e-02
4.4800000e+02 2.5120804e-02
4.4900000e+02 2.4421371e-02
4.5000000e+02 2.3735804e-02
4.5100000e+02 2.3068883e-02
4.5200000e+02 2.2444605e-02
4.5300000e+02 2.1875174e-02
4.5400000e+02 2.1358163e-02
4.5500000e+02 2.0892530e-02
4.5600000e+02 2.0473290e-02
4.5700000e+02 2.0100511e-02
4.5800000e+02 1.9774923e-02
4.5900000e+02 1.9486638e-02
4.6000000e+02 1.9230726e-02
4.6100000e+02 1.9006698e-02
4.6200000e+02 1.8805993e-02
4.6300000e+02 1.8633229e-02
4.6400000e+02 1.8483008e-02
4.6500000e+02 1.8341089e-02
4.6600000e+02 1.8218912e-02
4.6700000e+02 1.8103724e-02
4.6800000e+02 1.7968893e-02
4.6900000e+02 1.7823857e-02
4.7000000e+02 1.7687772e-02
4.7100000e+02 1.7545177e-02
4.7200000e+02 1.7402039e-02
4.7300000e+02 1.7277713e-02
4.7400000e+02 1.7174632e-02
4.7500000e+02 1.7075611e-02
4.7600000e+02 1.6974800e-02
4.7700000e+02 1.6878484e-02
4.7800000e+02 1.6783821e-02
4.7900000e+02 1.6684900e-02
4.8000000e+02 1.6582322e-02
4.8100000e+02 1.6495147e-02
4.8200000e+02 1.6426029e-02
4.8300000e+02 1.6371488e-02
4.8400000e+02 1.6323819e-02
4.8500000e+02 1.6282341e-02
4.8600000e+02 1.6230884e-02
4.8700000e+02 1.6153321e-02
4.8800000e+02 1.6050880e-02
4.8900000e+02 1.5921886e-02
4.9000000e+02 1.5769015e-02
4.9100000e+02 1.5605484e-02
4.9200000e+02 1.5433665e-02
4.9300000e+02 1.5243618e-02
4.9400000e+02 1.5055069e-02
4.9500000e+02 1.4873912e-02
4.9600000e+02 1.4689855e-02
4.9700000e+02 1.4510721e-02
4.9800000e+02 1.4340855e-02
4.9900000e+02 1.4163457e-02
5.0000000e+02 1.3977147e-02
5.0100000e+02 1.3784330e-02
5.0200000e+02 1.3578857e-02
5.0300000e+02 1.3368618e-02
5.0400000e+02 1.3157461e-02
5.0500000e+02 1.2943081e-02
5.0600000e+02 1.2721228e-02
5.0700000e+02 1.2496839e-02
5.0800000e+02 1.2263975e-02
5.0900000e+02 1.2024370e-02
5.1000000e+02 1.1782501e-02
5.1100000e+02 1.1546791e-02
5.1200000e+02 1.1315463e-02
5.1300000e+02 1.1090362e-02
5.1400000e+02 1.0875722e-02
5.1500000e+02 1.0661196e-02
5.1600000e+02 1.0439003e-02
5.1700000e+02 1.0214611e-02
5.1800000e+02 9.9954205e-03
5.1900000e+02 9.7801244e-03
5.2000000e+02 9.5755681e-03
5.2100000e+02 9.3845879e-03
5.2200000e+02 9.2019723e-03
5.2300000e+02 9.0183842e-03
5.2400000e+02 8.8282998e-03
5.2500000e+02 8.6362134e-03
5.2600000e+02 8.4505448e-03
5.2700000e+02 8.2716673e-03
5.2800000e+02 8.0952908e-03
5.2900000e+02 7.9237237e-03
5.3000000e+02 7.7512087e-03
5.3100000e+02 7.5737966e-03
5.3200000e+02 7.4031034e-03
5.3300000e+02 7.2499031e-03
5.3400000e+02 7.1125392e-03
5.3500000e+02 6.9914447e-03
5.3600000e+02 6.8800161e-03
5.3700000e+02 6.7591953e-03
5.3800000e+02 6.6272975e-03
5.3900000e+02 6.4859013e-03
5.4000000e+02 6.3315406e-03
5.4100000e+02 6.1716499e-03
5.4200000e+02 6.0200330e-03
5.4300000e+02 5.8762533e-03
5.4400000e+02 5.7375144e-03
5.4500000e+02 5.6057543e-03
5.4600000e+02 5.4809297e-03
5.4700000e+02 5.3609774e-03
5.4800000e+02 5.2400045e-03
5.4900000e+02 5.1287743e-03
5.5000000e+02 5.0339927e-03
5.5100000e+02 4.9430838e-03
5.5200000e+02 4.8506427e-03
5.5300000e+02 4.7612334e-03
5.5400000e+02 4.6668894e-03
5.5500000e+02 4.5679197e-03
5.5600000e+02 4.4806017e-03
5.5700000e+02 4.4048788e-03
5.5800000e+02 4.3453852e-03
5.5900000e+02 4.3047658e-03
5.6000000e+02 4.2756713e-03
5.6100000e+02 4.2549517e-03
5.6200000e+02 4.2457703e-03
5.6300000e+02 4.2359007e-03
5.6400000e+02 4.2180843e-03
5.6500000e+02 4.2043994e-03
5.6600000e+02 4.1914091e-03
5.6700000e+02 4.1773187e-03
5.6800000e+02 4.1758110e-03
5.6900000e+02 4.1945880e-03
5.7000000e+02 4.2222777e-03
5.7100000e+02 4.2562347e-03
5.7200000e+02 4.3004072e-03
5.7300000e+02 4.3487764e-03
5.7400000e+02 4.3949497e-03
5.7500000e+02 4.4391789e-03
5.7600000e+02 4.4832809e-03
5.7700000e+02 4.5222910e-03
5.7800000e+02 4.5569473e-03
5.7900000e+02 4.5957473e-03
5.8000000e+02 4.6353930e-03
5.8100000e+02 4.6787040e-03
5.8200000e+02 4.7343573e-03
5.8300000e+02 4.7945469e-03
5.8400000e+02 4.8504928e-03
5.8500000e+02 4.9033022e-03
5.8600000e+02 4.9495042e-03
5.8700000e+02 4.9789178e-03
5.8800000e+02 4.9971740e-03
5.8900000e+02 5.0153048e-03
5.9000000e+02 5.0441219e-03
5.9100000e+02 5.0784081e-03
5.9200000e+02 5.1135743e-03
5.9300000e+02 5.1506486e-03
5.9400000e+02 5.1778711e-03
5.9500000e+02 5.1880585e-03
5.9600000e+02 5.1901346e-03
5.9700000e+02 5.1934970e-03
5.9800000e+02 5.2041616e-03
5.9900000e+02 5.2272951e-03
6.0000000e+02 5.2533163e-03
6.0100000e+02 5.2827346e-03
6.0200000e+02 5.3230911e-03
6.0300000e+02 5.3646381e-03
6.0400000e+02 5.4126499e-03
6.0500000e+02 5.4843799e-03
6.0600000e+02 5.5730942e-03
6.0700000e+02 5.6721183e-03
6.0800000e+02 5.7900278e-03
6.0900000e+02 5.9184763e-03
6.1000000e+02 6.0445791e-03
6.1100000e+02 6.1734492e-03
6.1200000e+02 6.2977842e-03
6.1300000e+02 6.4078466e-03
6.1400000e+02 6.5039573e-03
6.1500000e+02 6.5942191e-03
6.1600000e+02 6.6760599e-03
6.1700000e+02 6.7535985e-03
6.1800000e+02 6.8332119e-03
6.1900000e+02 6.9095499e-03
6.2000000e+02 6.9764006e-03
6.2100000e+02 7.0343995e-03
6.2200000e+02 7.0769333e-03
6.2300000e+02 7.0982303e-03
6.2400000e+02 7.1139824e-03
6.2500000e+02 7.1348207e-03
6.2600000e+02 7.1620077e-03
6.2700000e+02 7.1982348e-03
6.2800000e+02 7.2429103e-03
6.2900000e+02 7.2822433e-03
6.3000000e+02 7.3016819e-03
6.3100000e+02 7.2964178e-03
6.3200000e+02 7.2741535e-03
6.3300000e+02 7.2444631e-03
6.3400000e+02 7.2138767e-03
6.3500000e+02 7.1856062e-03
6.3600000e+02 7.1585311e-03
6.3700000e+02 7.1341721e-03
6.3800000e+02 7.1077660e-03
6.3900000e+02 7.0741391e-03
6.4000000e+02 7.0365694e-03
6.4100000e+02 7.0009359e-03
6.4200000e+02 6.9629285e-03
6.4300000e+02 6.9244753e-03
6.4400000e+02 6.8921963e-03
6.4500000e+02 6.8667580e-03
6.4600000e+02 6.8474522e-03
6.4700000e+02 6.8345936e-03
6.4800000e+02 6.8249080e-03
6.4900000e+02 6.8232070e-03
6.5000000e+02 6.8375979e-03
6.5100000e+02 6.8787189e-03
6.5200000e+02 6.9553212e-03
6.5300000e+02 7.0752954e-03
6.5400000e+02 7.2369134e-03
6.5500000e+02 7.4459900e-03
6.5600000e+02 7.6971213e-03
6.5700000e+02 7.9723361e-03
6.5800000e+02 8.2783846e-03
6.5900000e+02 8.6243565e-03
6.6000000e+02 8.9968591e-03
6.6100000e+02 9.3981448e-03
6.6200000e+02 9.8490509e-03
6.6300000e+02 1.0330378e-02
6.6400000e+02 1.0826356e-02
6.6500000e+02 1.1337297e-02
6.6600000e+02 1.1848473e-02
6.6700000e+02 1.2353025e-02
6.6800000e+02 1.2853608e-02
6.6900000e+02 1.3330244e-02
6.7000000e+02 1.3771025e-02
6.7100000e+02 1.4172406e-02
6.7200000e+02 1.4514147e-02
6.7300000e+02 1.4798101e-02
6.7400000e+02 1.5045794e-02
6.7500000e+02 1.5248519e-02
6.7600000e+02 1.5405969e-02
6.7700000e+02 1.5526554e-02
6.7800000e+02 1.5585692e-02
6.7900000e+02 1.5555868e-02
6.8000000e+02 1.5444585e-02
6.8100000e+02 1.5246536e-02
6.8200000e+02 1.4940093e-02
6.8300000e+02 1.4528389e-02
6.8400000e+02 1.4030769e-02
6.8500000e+02 1.3452479e-02
6.8600000e+02 1.2792682e-02
6.8700000e+02 1.2073448e-02
6.8800000e+02 1.1323872e-02
6.8900000e+02 1.0552005e-02
6.9000000e+02 9.7630890e-03
6.9100000e+02 8.9865349e-03
6.9200000e+02 8.2381470e-03
6.9300000e+02 7.5163107e-03
6.9400000e+02 6.8297192e-03
6.9500000e+02 6.1897496e-03
6.9600000e+02 5.5985453e-03
6.9700000e+02 5.0617346e-03
6.9800000e+02 4.5827429e-03
6.9900000e+02 4.1645923e-03
7.0000000e+02 3.8046944e-03
7.0100000e+02 3.4908888e-03
7.0200000e+02 3.2103667e-03
7.0300000e+02 2.9602135e-03
7.0400000e+02 2.7299537e-03
7.0500000e+02 2.5148874e-03
7.0600000e+02 2.3190527e-03
7.0700000e+02 2.1440299e-03
7.0800000e+02 1.9925648e-03
7.0900000e+02 1.8729593e-03
7.1000000e+02 1.7843655e-03
7.1100000e+02 1.7091568e-03
7.1200000e+02 1.6394226e-03
7.1300000e+02 1.5650010e-03
7.1400000e+02 1.4778394e-03
7.1500000e+02 1.3807983e-03
7.1600000e+02 1.2867540e-03
7.1700000e+02 1.2039270e-03
7.1800000e+02 1.1375282e-03
7.1900000e+02 1.0806291e-03
7.2000000e+02 1.0302234e-03
7.2100000e+02 9.9082815e-04
7.2200000e+02 9.5581630e-04
7.2300000e+02 9.1921250e-04
7.2400000e+02 8.8135046e-04
7.2500000e+02 8.4397678e-04
7.2600000e+02 8.0444006e-04
7.2700000e+02 7.6674808e-04
7.2800000e+02 7.3494130e-04
7.2900000e+02 7.1374906e-04
7.3000000e+02 6.9601505e-04
7.3100000e+02 6.7799657e-04
7.3200000e+02 6.5601157e-04
7.3300000e+02 6.2960365e-04
7.3400000e+02 6.0320926e-04
7.3500000e+02 5.8093151e-04
7.3600000e+02 5.6400820e-04
7.3700000e+02 5.5686767e-04
7.3800000e+02 5.5730718e-04
7.3900000e+02 5.5511982e-04
7.4000000e+02 5.4769187e-04
7.4100000e+02 5.3436827e-04
7.4200000e+02 5.1159055e-04
7.4300000e+02 4.8329366e-04
7.4400000e+02 4.5863769e-04
7.4500000e+02 4.3817911e-04
7.4600000e+02 4.2708516e-04
7.4700000e+02 4.2686755e-04
7.4800000e+02 4.3108504e-04
7.4900000e+02 4.4366637e-04
7.5000000e+02 4.7309205e-04
7.5100000e+02 5.0387538e-04
7.5200000e+02 5.2859822e-04
7.5300000e+02 5.4893641e-04
7.5400000e+02 5.4958176e-04
7.5500000e+02 5.1724700e-04
7.5600000e+02 4.7018796e-04
7.5700000e+02 4.2544108e-04
7.5800000e+02 3.8481788e-04
7.5900000e+02 3.6702096e-04
7.6000000e+02 3.7595823e-04
7.6100000e+02 3.9194391e-04
7.6200000e+02 4.0661998e-04
7.6300000e+02 4.2428016e-04
7.6400000e+02 4.2457238e-04
7.6500000e+02 4.1852588e-04
7.6600000e+02 4.1729086e-04
7.6700000e+02 4.0513264e-04
7.6800000e+02 3.8254306e-04
7.6900000e+02 3.6908024e-04
7.7000000e+02 3.6311184e-04
7.7100000e+02 3.6549973e-04
7.7200000e+02 3.9034644e-04
7.7300000e+02 4.2114852e-04
7.7400000e+02 4.3679265e-04
7.7500000e+02 4.2550042e-04
7.7600000e+02 3.8865321e-04
7.7700000e+02 3.3848043e-04
7.7800000e+02 2.9886372e-04
7.7900000e+02 2.8615369e-04
7.8000000e+02 2.9638610e-04
7.8100000e+02 3.1880347e-04
7.8200000e+02 3.4586762e-04
7.8300000e+02 3.6527647e-04
7.8400000e+02 3.5914126e-04
7.8500000e+02 3.5245307e-04
7.8600000e+02 3.6317275e-04
7.8700000e+02 3.6182936e-04
7.8800000e+02 3.5134100e-04
7.8900000e+02 3.5504602e-04
7.9000000e+02 3.4261885e-04
7.9100000e+02 3.1159136e-04
7.9200000e+02 3.0165944e-04
7.9300000e+02 3.0720532e-04
7.9400000e+02 3.2412159e-04
7.9500000e+02 3.6542928e-04
7.9600000e+02 4.1187543e-04
7.9700000e+02 4.4621517e-04
7.9800000e+02 4.6567993e-04
7.9900000e+02 4.5656301e-04
8.0000000e+02 4.3184432e-04
8.0100000e+02 4.1489317e-04
8.0200000e+02 4.0689710e-04
8.0300000e+02 3.9983963e-04
8.0400000e+02 4.0169253e-04
8.0500000e+02 4.1269776e-04
8.0600000e+02 4.1044211e-04
8.0700000e+02 3.8927282e-04
8.0800000e+02 3.7460586e-04
8.0900000e+02 3.6732666e-04
8.1000000e+02 3.4642320e-04
8.1100000e+02 3.2690523e-04
8.1200000e+02 3.2303605e-04
8.1300000e+02 3.2672974e-04
8.1400000e+02 3.3399635e-04
8.1500000e+02 3.4546516e-04
8.1600000e+02 3.6068802e-04
8.1700000e+02 3.7411945e-04
8.1800000e+02 3.7313519e-04
8.1900000e+02 3.6048749e-04
8.2000000e+02 3.5084552e-04
8.2100000e+02 3.3505173e-04
8.2200000e+02 3.0902627e-04
8.2300000e+02 2.9893470e-04
8.2400000e+02 3.0616788e-04
8.2500000e+02 3.0995985e-04
8.2600000e+02 3.1751973e-04
8.2700000e+02 3.3610066e-04
8.2800000e+02 3.4358968e-04
8.2900000e+02 3.3481160e-04
8.3000000e+02 3.3042725e-04
8.3100000e+02 3.3438688e-04
8.3200000e+02 3.4801476e-04
8.3300000e+02 3.6632804e-04
8.3400000e+02 3.8756664e-04
8.3500000e+02 4.1512962e-04
8.3600000e+02 4.3672822e-04
8.3700000e+02 4.3249643e-04
8.3800000e+02 4.2130174e-04
8.3900000e+02 4.1237858e-04
8.4000000e+02 3.7633547e-04
8.4100000e+02 3.1834510e-04
8.4200000e+02 2.6190270e-04
8.4300000e+02 2.0030530e-04
8.4400000e+02 1.3253028e-04
8.4500000e+02 9.5997856e-05
8.4600000e+02 8.7398928e-05
8.4700000e+02 8.6933103e-05
8.4800000e+02 1.1402487e-04
8.4900000e+02 1.6891355e-04
8.5000000e+02 2.1108948e-04
8.5100000e+02 2.4472063e-04
8.5200000e+02 2.7304890e-04
8.5300000e+02 2.5705949e-04
8.5400000e+02 1.9309055e-04
8.5500000e+02 1.1759128e-04
8.5600000e+02 5.2742654e-05
8.5700000e+02 6.0072527e-06
8.5800000e+02 1.3490735e-05
8.5900000e+02 7.0387173e-06
8.6000000e+02 5.4797725e-05
8.6100000e+02 8.7422299e-05
8.6200000e+02 1.1332754e-04
8.6300000e+02 1.3892908e-04
8.6400000e+02 1.3797697e-04
8.6500000e+02 1.2839281e-04
8.6600000e+02 1.5363454e-04
8.6700000e+02 1.8730413e-04
8.6800000e+02 2.4436299e-04
8.6900000e+02 3.5893705e-04
8.7000000e+02 4.8669826e-04
8.7100000e+02 5.8891324e-04
8.7200000e+02 6.8000810e-04
8.7300000e+02 7.2455492e-04
8.7400000e+02 6.6128535e-04
8.7500000e+02 5.1650425e-04
8.7600000e+02 3.2411708e-04
8.7700000e+02 1.1007965e-04
8.7800000e+02 8.5796048e-05
8.7900000e+02 2.3008210e-04
8.8000000e+02 2.9548271e-04
8.8100000e+02 3.0527153e-04
8.8200000e+02 2.7141509e-04
8.8300000e+02 2.1523898e-04
8.8400000e+02 1.5238908e-04
8.8500000e+02 1.0739829e-04
8.8600000e+02 6.3734293e-05
8.8700000e+02 4.4900553e-05
8.8800000e+02 4.0995835e-05
8.8900000e+02 6.3027254e-05
8.9000000e+02 2.3546958e-04
8.9100000e+02 3.6824675e-04
8.9200000e+02 4.7908446e-04
8.9300000e+02 6.1716362e-04
8.9400000e+02 6.9384118e-04
8.9500000e+02 7.1263171e-04
8.9600000e+02 7.8681718e-04
8.9700000e+02 9.4307107e-04
8.9800000e+02 8.2768448e-04
8.9900000e+02 8.0293253e-04
9.0000000e+02 9.5845683e-05
-1 -1
